Date: 01.12.2018 16:48:36
Channel	WavelengthAshiftRegauged	WavelengthAnotRegauged	Counts
	A	A	
1	3826.243	3824.928	9104
2	3826.304	3824.99	9108
3	3826.365	3825.051	9187
4	3826.426	3825.112	9176
5	3826.487	3825.173	8905
6	3826.548	3825.234	8622
7	3826.61	3825.295	8622
8	3826.671	3825.356	8570
9	3826.732	3825.417	8609
10	3826.793	3825.479	8594
11	3826.854	3825.54	8433
12	3826.915	3825.601	8518
13	3826.976	3825.662	8599
14	3827.038	3825.723	8730
15	3827.099	3825.784	8759
16	3827.16	3825.845	8939
17	3827.221	3825.906	9164
18	3827.282	3825.968	9448
19	3827.343	3826.029	9572
20	3827.404	3826.09	9590
21	3827.465	3826.151	9128
22	3827.527	3826.212	8748
23	3827.588	3826.273	8569
24	3827.649	3826.334	8635
25	3827.71	3826.396	8576
26	3827.771	3826.457	8671
27	3827.832	3826.518	8514
28	3827.893	3826.579	8666
29	3827.955	3826.64	8846
30	3828.016	3826.701	9065
31	3828.077	3826.762	9193
32	3828.138	3826.823	9197
33	3828.199	3826.885	9097
34	3828.26	3826.946	8745
35	3828.321	3827.007	8598
36	3828.382	3827.068	8596
37	3828.444	3827.129	8582
38	3828.505	3827.19	8693
39	3828.566	3827.251	8886
40	3828.627	3827.313	8834
41	3828.688	3827.374	8962
42	3828.749	3827.435	9057
43	3828.81	3827.496	9159
44	3828.872	3827.557	9376
45	3828.933	3827.618	9484
46	3828.994	3827.679	9328
47	3829.055	3827.74	9085
48	3829.116	3827.802	8724
49	3829.177	3827.863	8627
50	3829.238	3827.924	8927
51	3829.299	3827.985	9183
52	3829.361	3828.046	9208
53	3829.422	3828.107	9433
54	3829.483	3828.168	9212
55	3829.544	3828.229	9137
56	3829.605	3828.291	8788
57	3829.666	3828.352	8854
58	3829.727	3828.413	8745
59	3829.789	3828.474	8679
60	3829.85	3828.535	8798
61	3829.911	3828.596	8840
62	3829.972	3828.657	8845
63	3830.033	3828.719	8737
64	3830.094	3828.78	8740
65	3830.155	3828.841	8925
66	3830.216	3828.902	9122
67	3830.278	3828.963	9369
68	3830.339	3829.024	9404
69	3830.4	3829.085	9394
70	3830.461	3829.146	9049
71	3830.522	3829.208	8602
72	3830.583	3829.269	8639
73	3830.644	3829.33	8587
74	3830.706	3829.391	8534
75	3830.767	3829.452	8631
76	3830.828	3829.513	8686
77	3830.889	3829.574	8884
78	3830.95	3829.635	9266
79	3831.011	3829.697	9290
80	3831.072	3829.758	9389
81	3831.133	3829.819	9164
82	3831.195	3829.88	8854
83	3831.256	3829.941	8784
84	3831.317	3830.002	8680
85	3831.378	3830.063	8845
86	3831.439	3830.125	8720
87	3831.5	3830.186	8825
88	3831.561	3830.247	8870
89	3831.623	3830.308	8952
90	3831.684	3830.369	9153
91	3831.745	3830.43	9224
92	3831.806	3830.491	9452
93	3831.867	3830.552	9497
94	3831.928	3830.614	9050
95	3831.989	3830.675	8710
96	3832.05	3830.736	8738
97	3832.112	3830.797	8955
98	3832.173	3830.858	9332
99	3832.234	3830.919	9362
100	3832.295	3830.98	9426
101	3832.356	3831.042	9122
102	3832.417	3831.103	8777
103	3832.478	3831.164	8684
104	3832.54	3831.225	8577
105	3832.601	3831.286	8720
106	3832.662	3831.347	8938
107	3832.723	3831.408	9203
108	3832.784	3831.469	9394
109	3832.845	3831.531	9467
110	3832.906	3831.592	9293
111	3832.967	3831.653	9256
112	3833.029	3831.714	9253
113	3833.09	3831.775	9416
114	3833.151	3831.836	9503
115	3833.212	3831.897	9371
116	3833.273	3831.958	9010
117	3833.334	3832.02	8756
118	3833.395	3832.081	8669
119	3833.457	3832.142	8637
120	3833.518	3832.203	8662
121	3833.579	3832.264	8736
122	3833.64	3832.325	8951
123	3833.701	3832.386	9197
124	3833.762	3832.448	9455
125	3833.823	3832.509	9634
126	3833.884	3832.57	9469
127	3833.946	3832.631	9000
128	3834.007	3832.692	8857
129	3834.068	3832.753	8950
130	3834.129	3832.814	8837
131	3834.19	3832.875	8759
132	3834.251	3832.937	8782
133	3834.312	3832.998	8908
134	3834.374	3833.059	9092
135	3834.435	3833.12	9284
136	3834.496	3833.181	9431
137	3834.557	3833.242	9469
138	3834.618	3833.303	9158
139	3834.679	3833.365	8835
140	3834.74	3833.426	8951
141	3834.801	3833.487	9160
142	3834.863	3833.548	9397
143	3834.924	3833.609	9522
144	3834.985	3833.67	9483
145	3835.046	3833.731	9023
146	3835.107	3833.792	8681
147	3835.168	3833.854	8643
148	3835.229	3833.915	8616
149	3835.291	3833.976	8658
150	3835.352	3834.037	8896
151	3835.413	3834.098	9003
152	3835.474	3834.159	9231
153	3835.535	3834.22	9728
154	3835.596	3834.282	10242
155	3835.657	3834.343	10522
156	3835.718	3834.404	10731
157	3835.78	3834.465	10728
158	3835.841	3834.526	10184
159	3835.902	3834.587	9508
160	3835.963	3834.648	9150
161	3836.024	3834.709	8972
162	3836.085	3834.771	8866
163	3836.146	3834.832	8923
164	3836.208	3834.893	9060
165	3836.269	3834.954	9323
166	3836.33	3835.015	9412
167	3836.391	3835.076	9470
168	3836.452	3835.137	9090
169	3836.513	3835.199	8756
170	3836.574	3835.26	8698
171	3836.635	3835.321	8736
172	3836.697	3835.382	8993
173	3836.758	3835.443	9115
174	3836.819	3835.504	9419
175	3836.88	3835.565	9554
176	3836.941	3835.626	9705
177	3837.002	3835.688	9540
178	3837.063	3835.749	9381
179	3837.125	3835.81	9002
180	3837.186	3835.871	8739
181	3837.247	3835.932	8891
182	3837.308	3835.993	9229
183	3837.369	3836.054	9225
184	3837.43	3836.116	9349
185	3837.491	3836.177	9386
186	3837.552	3836.238	8911
187	3837.614	3836.299	8631
188	3837.675	3836.36	8563
189	3837.736	3836.421	8578
190	3837.797	3836.482	8823
191	3837.858	3836.543	9053
192	3837.919	3836.605	9218
193	3837.98	3836.666	9409
194	3838.042	3836.727	9671
195	3838.103	3836.788	9629
196	3838.164	3836.849	9664
197	3838.225	3836.91	9472
198	3838.286	3836.971	9099
199	3838.347	3837.033	8663
200	3838.408	3837.094	8657
201	3838.469	3837.155	8579
202	3838.531	3837.216	8900
203	3838.592	3837.277	9102
204	3838.653	3837.338	9389
205	3838.714	3837.399	9437
206	3838.775	3837.46	9518
207	3838.836	3837.522	9218
208	3838.897	3837.583	8933
209	3838.958	3837.644	8838
210	3839.02	3837.705	8796
211	3839.081	3837.766	8800
212	3839.142	3837.827	9009
213	3839.203	3837.888	9266
214	3839.264	3837.95	9458
215	3839.325	3838.011	9648
216	3839.386	3838.072	9696
217	3839.448	3838.133	9464
218	3839.509	3838.194	9317
219	3839.57	3838.255	9499
220	3839.631	3838.316	9457
221	3839.692	3838.377	9476
222	3839.753	3838.439	9405
223	3839.814	3838.5	9104
224	3839.875	3838.561	8731
225	3839.937	3838.622	8462
226	3839.998	3838.683	8621
227	3840.059	3838.744	8576
228	3840.12	3838.805	8670
229	3840.181	3838.867	8694
230	3840.242	3838.928	8892
231	3840.303	3838.989	9202
232	3840.365	3839.05	9215
233	3840.426	3839.111	9354
234	3840.487	3839.172	9053
235	3840.548	3839.233	8936
236	3840.609	3839.294	8875
237	3840.67	3839.356	8998
238	3840.731	3839.417	9291
239	3840.792	3839.478	9624
240	3840.854	3839.539	9672
241	3840.915	3839.6	9656
242	3840.976	3839.661	9542
243	3841.037	3839.722	9158
244	3841.098	3839.784	8778
245	3841.159	3839.845	8805
246	3841.22	3839.906	8699
247	3841.281	3839.967	8847
248	3841.343	3840.028	9116
249	3841.404	3840.089	9125
250	3841.465	3840.15	9183
251	3841.526	3840.211	9217
252	3841.587	3840.273	9111
253	3841.648	3840.334	9220
254	3841.709	3840.395	9409
255	3841.771	3840.456	9762
256	3841.832	3840.517	9834
257	3841.893	3840.578	9698
258	3841.954	3840.639	9272
259	3842.015	3840.701	9143
260	3842.076	3840.762	8914
261	3842.137	3840.823	8959
262	3842.198	3840.884	8874
263	3842.26	3840.945	8888
264	3842.321	3841.006	9103
265	3842.382	3841.067	9049
266	3842.443	3841.128	9203
267	3842.504	3841.19	9125
268	3842.565	3841.251	8829
269	3842.626	3841.312	8696
270	3842.688	3841.373	8735
271	3842.749	3841.434	9028
272	3842.81	3841.495	9387
273	3842.871	3841.556	9460
274	3842.932	3841.618	9661
275	3842.993	3841.679	9537
276	3843.054	3841.74	9116
277	3843.115	3841.801	9026
278	3843.177	3841.862	9062
279	3843.238	3841.923	9186
280	3843.299	3841.984	9427
281	3843.36	3842.045	9373
282	3843.421	3842.107	9277
283	3843.482	3842.168	9203
284	3843.543	3842.229	9050
285	3843.604	3842.29	9254
286	3843.666	3842.351	9490
287	3843.727	3842.412	9559
288	3843.788	3842.473	9514
289	3843.849	3842.535	9232
290	3843.91	3842.596	8765
291	3843.971	3842.657	8559
292	3844.032	3842.718	8676
293	3844.094	3842.779	8747
294	3844.155	3842.84	8957
295	3844.216	3842.901	9116
296	3844.277	3842.962	9232
297	3844.338	3843.024	9505
298	3844.399	3843.085	9358
299	3844.46	3843.146	9072
300	3844.521	3843.207	9304
301	3844.583	3843.268	9403
302	3844.644	3843.329	9528
303	3844.705	3843.39	9511
304	3844.766	3843.452	9563
305	3844.827	3843.513	9219
306	3844.888	3843.574	8809
307	3844.949	3843.635	8813
308	3845.01	3843.696	8786
309	3845.072	3843.757	8938
310	3845.133	3843.818	9130
311	3845.194	3843.879	9222
312	3845.255	3843.941	9363
313	3845.316	3844.002	9482
314	3845.377	3844.063	9515
315	3845.438	3844.124	9628
316	3845.5	3844.185	9773
317	3845.561	3844.246	9624
318	3845.622	3844.307	9178
319	3845.683	3844.369	8944
320	3845.744	3844.43	9015
321	3845.805	3844.491	8986
322	3845.866	3844.552	9179
323	3845.927	3844.613	9162
324	3845.989	3844.674	9066
325	3846.05	3844.735	9164
326	3846.111	3844.796	9057
327	3846.172	3844.858	9290
328	3846.233	3844.919	9425
329	3846.294	3844.98	9646
330	3846.355	3845.041	9841
331	3846.417	3845.102	9762
332	3846.478	3845.163	9315
333	3846.539	3845.224	9127
334	3846.6	3845.286	9046
335	3846.661	3845.347	9129
336	3846.722	3845.408	9246
337	3846.783	3845.469	9329
338	3846.844	3845.53	9690
339	3846.906	3845.591	9732
340	3846.967	3845.652	9863
341	3847.028	3845.713	9853
342	3847.089	3845.775	9568
343	3847.15	3845.836	9168
344	3847.211	3845.897	8959
345	3847.272	3845.958	8861
346	3847.333	3846.019	8858
347	3847.395	3846.08	8812
348	3847.456	3846.141	8980
349	3847.517	3846.203	8890
350	3847.578	3846.264	9018
351	3847.639	3846.325	9232
352	3847.7	3846.386	9590
353	3847.761	3846.447	9576
354	3847.823	3846.508	9696
355	3847.884	3846.569	9324
356	3847.945	3846.63	9179
357	3848.006	3846.692	9277
358	3848.067	3846.753	9205
359	3848.128	3846.814	9451
360	3848.189	3846.875	9638
361	3848.25	3846.936	9562
362	3848.312	3846.997	9579
363	3848.373	3847.058	9733
364	3848.434	3847.12	9394
365	3848.495	3847.181	8962
366	3848.556	3847.242	8887
367	3848.617	3847.303	8875
368	3848.678	3847.364	8862
369	3848.74	3847.425	8944
370	3848.801	3847.486	9289
371	3848.862	3847.547	9874
372	3848.923	3847.609	10361
373	3848.984	3847.67	10641
374	3849.045	3847.731	10899
375	3849.106	3847.792	10494
376	3849.167	3847.853	9677
377	3849.229	3847.914	9297
378	3849.29	3847.975	9349
379	3849.351	3848.037	9517
380	3849.412	3848.098	9764
381	3849.473	3848.159	9930
382	3849.534	3848.22	10006
383	3849.595	3848.281	9556
384	3849.657	3848.342	9205
385	3849.718	3848.403	9059
386	3849.779	3848.464	8913
387	3849.84	3848.526	9164
388	3849.901	3848.587	9513
389	3849.962	3848.648	9736
390	3850.023	3848.709	9892
391	3850.084	3848.77	10118
392	3850.146	3848.831	10068
393	3850.207	3848.892	9820
394	3850.268	3848.954	9866
395	3850.329	3849.015	9950
396	3850.39	3849.076	10175
397	3850.451	3849.137	9900
398	3850.512	3849.198	9737
399	3850.574	3849.259	9222
400	3850.635	3849.32	9106
401	3850.696	3849.381	9119
402	3850.757	3849.443	9479
403	3850.818	3849.504	9628
404	3850.879	3849.565	9660
405	3850.94	3849.626	9790
406	3851.001	3849.687	9731
407	3851.063	3849.748	9574
408	3851.124	3849.809	9538
409	3851.185	3849.871	9659
410	3851.246	3849.932	9932
411	3851.307	3849.993	9892
412	3851.368	3850.054	9967
413	3851.429	3850.115	10301
414	3851.491	3850.176	10390
415	3851.552	3850.237	10515
416	3851.613	3850.298	10386
417	3851.674	3850.36	10332
418	3851.735	3850.421	10078
419	3851.796	3850.482	10114
420	3851.857	3850.543	10228
421	3851.918	3850.604	10318
422	3851.98	3850.665	10464
423	3852.041	3850.726	10656
424	3852.102	3850.788	11128
425	3852.163	3850.849	11397
426	3852.224	3850.91	11594
427	3852.285	3850.971	11598
428	3852.346	3851.032	11513
429	3852.408	3851.093	10816
430	3852.469	3851.154	10017
431	3852.53	3851.215	9358
432	3852.591	3851.277	9334
433	3852.652	3851.338	9094
434	3852.713	3851.399	8875
435	3852.774	3851.46	8703
436	3852.835	3851.521	8621
437	3852.897	3851.582	8659
438	3852.958	3851.643	8532
439	3853.019	3851.705	8463
440	3853.08	3851.766	8643
441	3853.141	3851.827	8585
442	3853.202	3851.888	8711
443	3853.263	3851.949	8689
444	3853.325	3852.01	8785
445	3853.386	3852.071	8715
446	3853.447	3852.132	8834
447	3853.508	3852.194	8926
448	3853.569	3852.255	8804
449	3853.63	3852.316	8864
450	3853.691	3852.377	8933
451	3853.752	3852.438	8868
452	3853.814	3852.499	8857
453	3853.875	3852.56	8785
454	3853.936	3852.622	8659
455	3853.997	3852.683	8808
456	3854.058	3852.744	8759
457	3854.119	3852.805	8851
458	3854.18	3852.866	8800
459	3854.242	3852.927	8729
460	3854.303	3852.988	8740
461	3854.364	3853.049	8621
462	3854.425	3853.111	8711
463	3854.486	3853.172	8756
464	3854.547	3853.233	9112
465	3854.608	3853.294	9212
466	3854.669	3853.355	9360
467	3854.731	3853.416	9469
468	3854.792	3853.477	9308
469	3854.853	3853.539	9096
470	3854.914	3853.6	8822
471	3854.975	3853.661	8724
472	3855.036	3853.722	8798
473	3855.097	3853.783	8695
474	3855.159	3853.844	8563
475	3855.22	3853.905	8536
476	3855.281	3853.966	8503
477	3855.342	3854.028	8652
478	3855.403	3854.089	8711
479	3855.464	3854.15	8588
480	3855.525	3854.211	8768
481	3855.586	3854.272	8779
482	3855.648	3854.333	9116
483	3855.709	3854.394	9092
484	3855.77	3854.456	9172
485	3855.831	3854.517	9142
486	3855.892	3854.578	8851
487	3855.953	3854.639	8780
488	3856.014	3854.7	8680
489	3856.076	3854.761	8655
490	3856.137	3854.822	8577
491	3856.198	3854.883	8723
492	3856.259	3854.945	8664
493	3856.32	3855.006	8646
494	3856.381	3855.067	8657
495	3856.442	3855.128	8775
496	3856.503	3855.189	8745
497	3856.565	3855.25	8801
498	3856.626	3855.311	8917
499	3856.687	3855.373	9013
500	3856.748	3855.434	9027
501	3856.809	3855.495	9079
502	3856.87	3855.556	8914
503	3856.931	3855.617	8924
504	3856.993	3855.678	8656
505	3857.054	3855.739	8573
506	3857.115	3855.8	8559
507	3857.176	3855.862	8630
508	3857.237	3855.923	8718
509	3857.298	3855.984	8683
510	3857.359	3856.045	8717
511	3857.42	3856.106	8607
512	3857.482	3856.167	8491
513	3857.543	3856.228	8691
514	3857.604	3856.29	8645
515	3857.665	3856.351	8900
516	3857.726	3856.412	9063
517	3857.787	3856.473	9192
518	3857.848	3856.534	9271
519	3857.91	3856.595	9277
520	3857.971	3856.656	9115
521	3858.032	3856.717	8864
522	3858.093	3856.779	8769
523	3858.154	3856.84	8726
524	3858.215	3856.901	8635
525	3858.276	3856.962	8680
526	3858.337	3857.023	8680
527	3858.399	3857.084	8689
528	3858.46	3857.145	8823
529	3858.521	3857.207	8894
530	3858.582	3857.268	9299
531	3858.643	3857.329	9765
532	3858.704	3857.39	10340
533	3858.765	3857.451	10503
534	3858.827	3857.512	10680
535	3858.888	3857.573	10247
536	3858.949	3857.634	9820
537	3859.01	3857.696	9235
538	3859.071	3857.757	9037
539	3859.132	3857.818	9007
540	3859.193	3857.879	8832
541	3859.254	3857.94	8718
542	3859.316	3858.001	8696
543	3859.377	3858.062	8805
544	3859.438	3858.124	8716
545	3859.499	3858.185	8744
546	3859.56	3858.246	8843
547	3859.621	3858.307	8948
548	3859.682	3858.368	9014
549	3859.744	3858.429	9079
550	3859.805	3858.49	9112
551	3859.866	3858.551	9268
552	3859.927	3858.613	9087
553	3859.988	3858.674	8942
554	3860.049	3858.735	9071
555	3860.11	3858.796	9159
556	3860.171	3858.857	9002
557	3860.233	3858.918	8865
558	3860.294	3858.979	8855
559	3860.355	3859.041	8815
560	3860.416	3859.102	8807
561	3860.477	3859.163	8751
562	3860.538	3859.224	8870
563	3860.599	3859.285	9118
564	3860.661	3859.346	9244
565	3860.722	3859.407	9512
566	3860.783	3859.468	9441
567	3860.844	3859.53	9300
568	3860.905	3859.591	9145
569	3860.966	3859.652	9051
570	3861.027	3859.713	8887
571	3861.088	3859.774	9025
572	3861.15	3859.835	9021
573	3861.211	3859.896	9095
574	3861.272	3859.958	9121
575	3861.333	3860.019	9101
576	3861.394	3860.08	9144
577	3861.455	3860.141	9284
578	3861.516	3860.202	9613
579	3861.578	3860.263	9730
580	3861.639	3860.324	9983
581	3861.7	3860.385	9767
582	3861.761	3860.447	9531
583	3861.822	3860.508	9162
584	3861.883	3860.569	8892
585	3861.944	3860.63	8743
586	3862.005	3860.691	8635
587	3862.067	3860.752	8667
588	3862.128	3860.813	8621
589	3862.189	3860.875	8616
590	3862.25	3860.936	8633
591	3862.311	3860.997	8580
592	3862.372	3861.058	8761
593	3862.433	3861.119	8770
594	3862.495	3861.18	8976
595	3862.556	3861.241	8928
596	3862.617	3861.302	8935
597	3862.678	3861.364	8873
598	3862.739	3861.425	8736
599	3862.8	3861.486	8602
600	3862.861	3861.547	8576
601	3862.922	3861.608	8613
602	3862.984	3861.669	8693
603	3863.045	3861.73	8687
604	3863.106	3861.792	8893
605	3863.167	3861.853	9106
606	3863.228	3861.914	9380
607	3863.289	3861.975	9590
608	3863.35	3862.036	9623
609	3863.412	3862.097	9539
610	3863.473	3862.158	9297
611	3863.534	3862.219	9146
612	3863.595	3862.281	8999
613	3863.656	3862.342	8818
614	3863.717	3862.403	8714
615	3863.778	3862.464	8647
616	3863.839	3862.525	8712
617	3863.901	3862.586	8598
618	3863.962	3862.647	8787
619	3864.023	3862.708	8754
620	3864.084	3862.77	8798
621	3864.145	3862.831	8878
622	3864.206	3862.892	9041
623	3864.267	3862.953	9141
624	3864.329	3863.014	9062
625	3864.39	3863.075	9089
626	3864.451	3863.136	9018
627	3864.512	3863.198	8854
628	3864.573	3863.259	8751
629	3864.634	3863.32	8612
630	3864.695	3863.381	8574
631	3864.756	3863.442	8692
632	3864.818	3863.503	8567
633	3864.879	3863.564	8496
634	3864.94	3863.625	8636
635	3865.001	3863.687	8598
636	3865.062	3863.748	8689
637	3865.123	3863.809	8874
638	3865.184	3863.87	8962
639	3865.246	3863.931	9068
640	3865.307	3863.992	8976
641	3865.368	3864.053	8716
642	3865.429	3864.115	8610
643	3865.49	3864.176	8782
644	3865.551	3864.237	8762
645	3865.612	3864.298	8672
646	3865.673	3864.359	8658
647	3865.735	3864.42	8612
648	3865.796	3864.481	8580
649	3865.857	3864.542	8648
650	3865.918	3864.604	8838
651	3865.979	3864.665	8824
652	3866.04	3864.726	8911
653	3866.101	3864.787	8972
654	3866.163	3864.848	8895
655	3866.224	3864.909	8815
656	3866.285	3864.97	8685
657	3866.346	3865.031	8595
658	3866.407	3865.093	8636
659	3866.468	3865.154	8756
660	3866.529	3865.215	8804
661	3866.59	3865.276	8742
662	3866.652	3865.337	8688
663	3866.713	3865.398	8797
664	3866.774	3865.459	8910
665	3866.835	3865.521	8907
666	3866.896	3865.582	9047
667	3866.957	3865.643	9186
668	3867.018	3865.704	9433
669	3867.08	3865.765	9573
670	3867.141	3865.826	9502
671	3867.202	3865.887	9540
672	3867.263	3865.948	9159
673	3867.324	3866.01	9004
674	3867.385	3866.071	8932
675	3867.446	3866.132	8774
676	3867.507	3866.193	8891
677	3867.569	3866.254	8852
678	3867.63	3866.315	8903
679	3867.691	3866.376	9067
680	3867.752	3866.438	9047
681	3867.813	3866.499	8893
682	3867.874	3866.56	8785
683	3867.935	3866.621	8637
684	3867.997	3866.682	8792
685	3868.058	3866.743	8726
686	3868.119	3866.804	8714
687	3868.18	3866.865	8790
688	3868.241	3866.927	8758
689	3868.302	3866.988	8769
690	3868.363	3867.049	8782
691	3868.424	3867.11	8812
692	3868.486	3867.171	8909
693	3868.547	3867.232	8896
694	3868.608	3867.293	8823
695	3868.669	3867.354	8792
696	3868.73	3867.416	8829
697	3868.791	3867.477	8678
698	3868.852	3867.538	8781
699	3868.914	3867.599	8737
700	3868.975	3867.66	8901
701	3869.036	3867.721	8958
702	3869.097	3867.782	9302
703	3869.158	3867.844	9493
704	3869.219	3867.905	9637
705	3869.28	3867.966	9528
706	3869.341	3868.027	9365
707	3869.403	3868.088	9044
708	3869.464	3868.149	9023
709	3869.525	3868.21	8786
710	3869.586	3868.271	8732
711	3869.647	3868.333	8788
712	3869.708	3868.394	8811
713	3869.769	3868.455	8987
714	3869.831	3868.516	9052
715	3869.892	3868.577	9111
716	3869.953	3868.638	9156
717	3870.014	3868.699	9452
718	3870.075	3868.76	9477
719	3870.136	3868.822	9394
720	3870.197	3868.883	9287
721	3870.258	3868.944	9121
722	3870.32	3869.005	9104
723	3870.381	3869.066	9021
724	3870.442	3869.127	9096
725	3870.503	3869.188	9073
726	3870.564	3869.25	9205
727	3870.625	3869.311	9381
728	3870.686	3869.372	9440
729	3870.748	3869.433	9633
730	3870.809	3869.494	9648
731	3870.87	3869.555	9757
732	3870.931	3869.616	9808
733	3870.992	3869.677	9771
734	3871.053	3869.739	9722
735	3871.114	3869.8	9642
736	3871.175	3869.861	9705
737	3871.237	3869.922	10364
738	3871.298	3869.983	11189
739	3871.359	3870.044	11741
740	3871.42	3870.105	12680
741	3871.481	3870.167	13342
742	3871.542	3870.228	13550
743	3871.603	3870.289	13693
744	3871.665	3870.35	14137
745	3871.726	3870.411	14241
746	3871.787	3870.472	14133
747	3871.848	3870.533	13783
748	3871.909	3870.594	13262
749	3871.97	3870.656	13213
750	3872.031	3870.717	12546
751	3872.092	3870.778	12086
752	3872.154	3870.839	11750
753	3872.215	3870.9	11567
754	3872.276	3870.961	11084
755	3872.337	3871.022	10783
756	3872.398	3871.083	10563
757	3872.459	3871.145	10052
758	3872.52	3871.206	9538
759	3872.582	3871.267	9801
760	3872.643	3871.328	10374
761	3872.704	3871.389	11152
762	3872.765	3871.45	12001
763	3872.826	3871.511	11947
764	3872.887	3871.573	11715
765	3872.948	3871.634	11307
766	3873.009	3871.695	11049
767	3873.071	3871.756	10708
768	3873.132	3871.817	10707
769	3873.193	3871.878	10452
770	3873.254	3871.939	9770
771	3873.315	3872	9197
772	3873.376	3872.062	9104
773	3873.437	3872.123	9366
774	3873.499	3872.184	9757
775	3873.56	3872.245	9923
776	3873.621	3872.306	10123
777	3873.682	3872.367	9773
778	3873.743	3872.428	9216
779	3873.804	3872.49	8857
780	3873.865	3872.551	8996
781	3873.926	3872.612	9344
782	3873.988	3872.673	9876
783	3874.049	3872.734	10215
784	3874.11	3872.795	10468
785	3874.171	3872.856	10321
786	3874.232	3872.917	9752
787	3874.293	3872.979	9059
788	3874.354	3873.04	8963
789	3874.416	3873.101	9300
790	3874.477	3873.162	9800
791	3874.538	3873.223	10233
792	3874.599	3873.284	10764
793	3874.66	3873.345	10987
794	3874.721	3873.407	10932
795	3874.782	3873.468	10778
796	3874.843	3873.529	10792
797	3874.905	3873.59	10330
798	3874.966	3873.651	9522
799	3875.027	3873.712	8906
800	3875.088	3873.773	8771
801	3875.149	3873.834	8840
802	3875.21	3873.896	9316
803	3875.271	3873.957	9545
804	3875.333	3874.018	9615
805	3875.394	3874.079	9557
806	3875.455	3874.14	9253
807	3875.516	3874.201	8857
808	3875.577	3874.262	8692
809	3875.638	3874.324	8679
810	3875.699	3874.385	8652
811	3875.76	3874.446	8806
812	3875.822	3874.507	9269
813	3875.883	3874.568	9564
814	3875.944	3874.629	9868
815	3876.005	3874.69	10074
816	3876.066	3874.751	9700
817	3876.127	3874.813	9230
818	3876.188	3874.874	8755
819	3876.25	3874.935	8543
820	3876.311	3874.996	8614
821	3876.372	3875.057	8704
822	3876.433	3875.118	8617
823	3876.494	3875.179	8709
824	3876.555	3875.241	8666
825	3876.616	3875.302	8490
826	3876.677	3875.363	8542
827	3876.739	3875.424	8681
828	3876.8	3875.485	8952
829	3876.861	3875.546	9455
830	3876.922	3875.607	9934
831	3876.983	3875.668	10386
832	3877.044	3875.73	10817
833	3877.105	3875.791	10869
834	3877.167	3875.852	10622
835	3877.228	3875.913	10523
836	3877.289	3875.974	10254
837	3877.35	3876.035	9869
838	3877.411	3876.096	9527
839	3877.472	3876.158	9375
840	3877.533	3876.219	9282
841	3877.594	3876.28	9062
842	3877.656	3876.341	8667
843	3877.717	3876.402	8691
844	3877.778	3876.463	8576
845	3877.839	3876.524	8697
846	3877.9	3876.585	8711
847	3877.961	3876.647	8607
848	3878.022	3876.708	8695
849	3878.083	3876.769	8565
850	3878.145	3876.83	8559
851	3878.206	3876.891	8741
852	3878.267	3876.952	9109
853	3878.328	3877.013	9470
854	3878.389	3877.075	9806
855	3878.45	3877.136	9978
856	3878.511	3877.197	10179
857	3878.573	3877.258	9820
858	3878.634	3877.319	9872
859	3878.695	3877.38	9755
860	3878.756	3877.441	9717
861	3878.817	3877.502	9422
862	3878.878	3877.564	9181
863	3878.939	3877.625	8955
864	3879	3877.686	8721
865	3879.062	3877.747	8669
866	3879.123	3877.808	8702
867	3879.184	3877.869	8766
868	3879.245	3877.93	8884
869	3879.306	3877.992	8787
870	3879.367	3878.053	8812
871	3879.428	3878.114	8971
872	3879.49	3878.175	9118
873	3879.551	3878.236	9435
874	3879.612	3878.297	9712
875	3879.673	3878.358	9826
876	3879.734	3878.419	9755
877	3879.795	3878.481	9600
878	3879.856	3878.542	9392
879	3879.917	3878.603	9125
880	3879.979	3878.664	9168
881	3880.04	3878.725	9644
882	3880.101	3878.786	9936
883	3880.162	3878.847	10184
884	3880.223	3878.909	10676
885	3880.284	3878.97	10874
886	3880.345	3879.031	10597
887	3880.406	3879.092	10429
888	3880.468	3879.153	10019
889	3880.529	3879.214	9602
890	3880.59	3879.275	9026
891	3880.651	3879.336	8835
892	3880.712	3879.398	8884
893	3880.773	3879.459	8815
894	3880.834	3879.52	8788
895	3880.896	3879.581	8844
896	3880.957	3879.642	8765
897	3881.018	3879.703	8827
898	3881.079	3879.764	8933
899	3881.14	3879.826	8889
900	3881.201	3879.887	8910
901	3881.262	3879.948	8938
902	3881.323	3880.009	9129
903	3881.385	3880.07	9298
904	3881.446	3880.131	9506
905	3881.507	3880.192	9612
906	3881.568	3880.253	9495
907	3881.629	3880.315	9245
908	3881.69	3880.376	9193
909	3881.751	3880.437	8948
910	3881.813	3880.498	8959
911	3881.874	3880.559	9026
912	3881.935	3880.62	9061
913	3881.996	3880.681	9162
914	3882.057	3880.743	9082
915	3882.118	3880.804	9143
916	3882.179	3880.865	9170
917	3882.24	3880.926	9244
918	3882.302	3880.987	9250
919	3882.363	3881.048	9286
920	3882.424	3881.109	9392
921	3882.485	3881.17	9445
922	3882.546	3881.232	9417
923	3882.607	3881.293	9545
924	3882.668	3881.354	9464
925	3882.729	3881.415	9623
926	3882.791	3881.476	9767
927	3882.852	3881.537	9754
928	3882.913	3881.598	9933
929	3882.974	3881.66	10138
930	3883.035	3881.721	10237
931	3883.096	3881.782	10512
932	3883.157	3881.843	11083
933	3883.219	3881.904	11303
934	3883.28	3881.965	11303
935	3883.341	3882.026	11234
936	3883.402	3882.087	10566
937	3883.463	3882.149	9803
938	3883.524	3882.21	8965
939	3883.585	3882.271	8500
940	3883.646	3882.332	8340
941	3883.708	3882.393	8301
942	3883.769	3882.454	8254
943	3883.83	3882.515	8333
944	3883.891	3882.577	8374
945	3883.952	3882.638	8354
946	3884.013	3882.699	8564
947	3884.074	3882.76	8871
948	3884.135	3882.821	9146
949	3884.197	3882.882	9475
950	3884.258	3882.943	9987
951	3884.319	3883.004	9895
952	3884.38	3883.066	9833
953	3884.441	3883.127	9545
954	3884.502	3883.188	9251
955	3884.563	3883.249	8835
956	3884.625	3883.31	8432
957	3884.686	3883.371	8361
958	3884.747	3883.432	8150
959	3884.808	3883.494	8276
960	3884.869	3883.555	8166
961	3884.93	3883.616	8186
962	3884.991	3883.677	8295
963	3885.052	3883.738	8146
964	3885.114	3883.799	8181
965	3885.175	3883.86	8144
966	3885.236	3883.921	8230
967	3885.297	3883.983	8257
968	3885.358	3884.044	8181
969	3885.419	3884.105	8287
970	3885.48	3884.166	8298
971	3885.542	3884.227	8294
972	3885.603	3884.288	8265
973	3885.664	3884.349	8317
974	3885.725	3884.411	8150
975	3885.786	3884.472	8193
976	3885.847	3884.533	8200
977	3885.908	3884.594	8213
978	3885.969	3884.655	8330
979	3886.031	3884.716	8349
980	3886.092	3884.777	8492
981	3886.153	3884.838	8631
982	3886.214	3884.9	8950
983	3886.275	3884.961	9130
984	3886.336	3885.022	9180
985	3886.397	3885.083	9186
986	3886.458	3885.144	9044
987	3886.52	3885.205	8775
988	3886.581	3885.266	8379
989	3886.642	3885.328	8230
990	3886.703	3885.389	8057
991	3886.764	3885.45	8111
992	3886.825	3885.511	8070
993	3886.886	3885.572	8218
994	3886.948	3885.633	8055
995	3887.009	3885.694	8150
996	3887.07	3885.755	8049
997	3887.131	3885.817	8049
998	3887.192	3885.878	8123
999	3887.253	3885.939	8097
1000	3887.314	3886	8214
1001	3887.375	3886.061	8173
1002	3887.437	3886.122	8127
1003	3887.498	3886.183	8205
1004	3887.559	3886.245	8143
1005	3887.62	3886.306	8228
1006	3887.681	3886.367	8253
1007	3887.742	3886.428	8240
1008	3887.803	3886.489	8287
1009	3887.865	3886.55	8160
1010	3887.926	3886.611	8289
1011	3887.987	3886.672	8284
1012	3888.048	3886.734	8223
1013	3888.109	3886.795	8185
1014	3888.17	3886.856	8259
1015	3888.231	3886.917	8257
1016	3888.292	3886.978	8186
1017	3888.354	3887.039	8206
1018	3888.415	3887.1	8257
1019	3888.476	3887.162	8264
1020	3888.537	3887.223	8403
1021	3888.598	3887.284	8483
1022	3888.659	3887.345	8612
1023	3888.72	3887.406	9398
1024	3888.782	3887.467	10330
1025	3888.843	3887.528	11460
1026	3888.904	3887.589	12525
1027	3888.965	3887.651	13814
1028	3889.026	3887.712	14145
1029	3889.087	3887.773	14009
1030	3889.148	3887.834	13564
1031	3889.209	3887.895	12791
1032	3889.271	3887.956	11630
1033	3889.332	3888.017	10656
1034	3889.393	3888.079	9950
1035	3889.454	3888.14	9367
1036	3889.515	3888.201	8893
1037	3889.576	3888.262	8560
1038	3889.637	3888.323	8789
1039	3889.699	3888.384	9526
1040	3889.76	3888.445	10191
1041	3889.821	3888.506	10472
1042	3889.882	3888.568	10579
1043	3889.943	3888.629	9962
1044	3890.004	3888.69	9208
1045	3890.065	3888.751	8795
1046	3890.126	3888.812	8723
1047	3890.188	3888.873	8838
1048	3890.249	3888.934	8851
1049	3890.31	3888.996	8889
1050	3890.371	3889.057	9288
1051	3890.432	3889.118	9742
1052	3890.493	3889.179	10208
1053	3890.554	3889.24	10577
1054	3890.616	3889.301	10520
1055	3890.677	3889.362	9791
1056	3890.738	3889.423	8856
1057	3890.799	3889.485	8390
1058	3890.86	3889.546	8360
1059	3890.921	3889.607	8378
1060	3890.982	3889.668	8882
1061	3891.043	3889.729	9804
1062	3891.105	3889.79	10417
1063	3891.166	3889.851	11064
1064	3891.227	3889.913	11042
1065	3891.288	3889.974	10291
1066	3891.349	3890.035	9259
1067	3891.41	3890.096	8367
1068	3891.471	3890.157	8134
1069	3891.533	3890.218	8055
1070	3891.594	3890.279	7982
1071	3891.655	3890.34	7978
1072	3891.716	3890.402	8031
1073	3891.777	3890.463	8006
1074	3891.838	3890.524	7964
1075	3891.899	3890.585	7996
1076	3891.96	3890.646	8132
1077	3892.022	3890.707	8010
1078	3892.083	3890.768	8040
1079	3892.144	3890.83	8085
1080	3892.205	3890.891	8126
1081	3892.266	3890.952	8111
1082	3892.327	3891.013	8268
1083	3892.388	3891.074	8946
1084	3892.45	3891.135	9828
1085	3892.511	3891.196	10475
1086	3892.572	3891.257	10858
1087	3892.633	3891.319	10848
1088	3892.694	3891.38	10092
1089	3892.755	3891.441	9457
1090	3892.816	3891.502	9438
1091	3892.877	3891.563	10309
1092	3892.939	3891.624	11509
1093	3893	3891.685	12048
1094	3893.061	3891.747	12273
1095	3893.122	3891.808	11486
1096	3893.183	3891.869	10182
1097	3893.244	3891.93	8901
1098	3893.305	3891.991	8159
1099	3893.367	3892.052	8049
1100	3893.428	3892.113	7867
1101	3893.489	3892.174	7910
1102	3893.55	3892.236	7880
1103	3893.611	3892.297	7914
1104	3893.672	3892.358	7882
1105	3893.733	3892.419	7974
1106	3893.794	3892.48	7918
1107	3893.856	3892.541	8011
1108	3893.917	3892.602	7995
1109	3893.978	3892.664	7930
1110	3894.039	3892.725	8006
1111	3894.1	3892.786	7991
1112	3894.161	3892.847	7987
1113	3894.222	3892.908	7970
1114	3894.284	3892.969	7970
1115	3894.345	3893.03	7973
1116	3894.406	3893.091	8019
1117	3894.467	3893.153	7887
1118	3894.528	3893.214	7926
1119	3894.589	3893.275	7977
1120	3894.65	3893.336	8044
1121	3894.711	3893.397	8133
1122	3894.773	3893.458	8114
1123	3894.834	3893.519	8515
1124	3894.895	3893.581	9316
1125	3894.956	3893.642	10411
1126	3895.017	3893.703	11175
1127	3895.078	3893.764	11929
1128	3895.139	3893.825	11726
1129	3895.201	3893.886	11082
1130	3895.262	3893.947	10829
1131	3895.323	3894.008	11254
1132	3895.384	3894.07	11846
1133	3895.445	3894.131	12175
1134	3895.506	3894.192	11903
1135	3895.567	3894.253	10560
1136	3895.628	3894.314	9089
1137	3895.69	3894.375	8171
1138	3895.751	3894.436	7985
1139	3895.812	3894.498	7931
1140	3895.873	3894.559	7816
1141	3895.934	3894.62	7893
1142	3895.995	3894.681	7901
1143	3896.056	3894.742	7888
1144	3896.118	3894.803	7841
1145	3896.179	3894.864	7887
1146	3896.24	3894.925	7859
1147	3896.301	3894.987	7960
1148	3896.362	3895.048	8326
1149	3896.423	3895.109	8618
1150	3896.484	3895.17	8693
1151	3896.545	3895.231	8806
1152	3896.607	3895.292	8726
1153	3896.668	3895.353	8304
1154	3896.729	3895.415	8022
1155	3896.79	3895.476	7846
1156	3896.851	3895.537	7864
1157	3896.912	3895.598	7853
1158	3896.973	3895.659	7811
1159	3897.035	3895.72	7850
1160	3897.096	3895.781	7802
1161	3897.157	3895.842	7941
1162	3897.218	3895.904	8020
1163	3897.279	3895.965	8242
1164	3897.34	3896.026	8744
1165	3897.401	3896.087	9041
1166	3897.462	3896.148	9298
1167	3897.524	3896.209	9307
1168	3897.585	3896.27	8915
1169	3897.646	3896.332	8428
1170	3897.707	3896.393	8130
1171	3897.768	3896.454	8141
1172	3897.829	3896.515	8479
1173	3897.89	3896.576	9368
1174	3897.952	3896.637	10584
1175	3898.013	3896.698	11267
1176	3898.074	3896.759	11879
1177	3898.135	3896.821	11717
1178	3898.196	3896.882	11497
1179	3898.257	3896.943	11438
1180	3898.318	3897.004	11711
1181	3898.379	3897.065	12144
1182	3898.441	3897.126	11864
1183	3898.502	3897.187	10626
1184	3898.563	3897.249	9037
1185	3898.624	3897.31	8178
1186	3898.685	3897.371	7907
1187	3898.746	3897.432	7820
1188	3898.807	3897.493	7784
1189	3898.869	3897.554	7765
1190	3898.93	3897.615	7712
1191	3898.991	3897.676	7813
1192	3899.052	3897.738	7779
1193	3899.113	3897.799	7796
1194	3899.174	3897.86	7779
1195	3899.235	3897.921	7860
1196	3899.296	3897.982	7883
1197	3899.358	3898.043	7880
1198	3899.419	3898.104	7802
1199	3899.48	3898.166	7691
1200	3899.541	3898.227	7706
1201	3899.602	3898.288	7781
1202	3899.663	3898.349	7681
1203	3899.724	3898.41	7852
1204	3899.786	3898.471	7839
1205	3899.847	3898.532	7872
1206	3899.908	3898.593	7853
1207	3899.969	3898.655	7786
1208	3900.03	3898.716	7762
1209	3900.091	3898.777	7725
1210	3900.152	3898.838	7637
1211	3900.213	3898.899	7681
1212	3900.275	3898.96	7792
1213	3900.336	3899.021	7742
1214	3900.397	3899.083	7789
1215	3900.458	3899.144	7862
1216	3900.519	3899.205	7741
1217	3900.58	3899.266	7747
1218	3900.641	3899.327	7775
1219	3900.703	3899.388	7808
1220	3900.764	3899.449	7789
1221	3900.825	3899.51	7887
1222	3900.886	3899.572	7793
1223	3900.947	3899.633	7932
1224	3901.008	3899.694	7849
1225	3901.069	3899.755	7928
1226	3901.13	3899.816	7828
1227	3901.192	3899.877	7917
1228	3901.253	3899.938	7961
1229	3901.314	3900	8190
1230	3901.375	3900.061	8705
1231	3901.436	3900.122	9789
1232	3901.497	3900.183	10711
1233	3901.558	3900.244	11487
1234	3901.62	3900.305	12089
1235	3901.681	3900.366	12411
1236	3901.742	3900.427	12470
1237	3901.803	3900.489	12699
1238	3901.864	3900.55	13210
1239	3901.925	3900.611	12941
1240	3901.986	3900.672	11711
1241	3902.047	3900.733	10051
1242	3902.109	3900.794	8826
1243	3902.17	3900.855	8302
1244	3902.231	3900.917	8107
1245	3902.292	3900.978	8195
1246	3902.353	3901.039	8127
1247	3902.414	3901.1	8547
1248	3902.475	3901.161	8902
1249	3902.537	3901.222	9312
1250	3902.598	3901.283	9427
1251	3902.659	3901.344	9385
1252	3902.72	3901.406	8975
1253	3902.781	3901.467	8312
1254	3902.842	3901.528	7794
1255	3902.903	3901.589	7680
1256	3902.964	3901.65	7715
1257	3903.026	3901.711	7655
1258	3903.087	3901.772	7628
1259	3903.148	3901.833	7668
1260	3903.209	3901.895	7702
1261	3903.27	3901.956	7682
1262	3903.331	3902.017	7655
1263	3903.392	3902.078	7666
1264	3903.454	3902.139	7619
1265	3903.515	3902.2	7560
1266	3903.576	3902.261	7584
1267	3903.637	3902.323	7626
1268	3903.698	3902.384	7529
1269	3903.759	3902.445	7572
1270	3903.82	3902.506	7489
1271	3903.881	3902.567	7509
1272	3903.943	3902.628	7560
1273	3904.004	3902.689	7679
1274	3904.065	3902.75	7628
1275	3904.126	3902.812	7542
1276	3904.187	3902.873	7549
1277	3904.248	3902.934	7474
1278	3904.309	3902.995	7613
1279	3904.371	3903.056	7604
1280	3904.432	3903.117	7555
1281	3904.493	3903.178	7623
1282	3904.554	3903.24	7564
1283	3904.615	3903.301	7636
1284	3904.676	3903.362	7607
1285	3904.737	3903.423	7562
1286	3904.798	3903.484	7691
1287	3904.86	3903.545	7601
1288	3904.921	3903.606	7590
1289	3904.982	3903.667	7595
1290	3905.043	3903.729	7627
1291	3905.104	3903.79	7680
1292	3905.165	3903.851	7658
1293	3905.226	3903.912	7726
1294	3905.288	3903.973	7681
1295	3905.349	3904.034	7695
1296	3905.41	3904.095	7927
1297	3905.471	3904.156	8665
1298	3905.532	3904.218	9813
1299	3905.593	3904.279	10654
1300	3905.654	3904.34	11748
1301	3905.715	3904.401	12588
1302	3905.777	3904.462	12866
1303	3905.838	3904.523	12550
1304	3905.899	3904.584	12280
1305	3905.96	3904.646	11729
1306	3906.021	3904.707	10344
1307	3906.082	3904.768	8963
1308	3906.143	3904.829	7990
1309	3906.205	3904.89	7564
1310	3906.266	3904.951	7577
1311	3906.327	3905.012	7535
1312	3906.388	3905.073	7563
1313	3906.449	3905.135	7504
1314	3906.51	3905.196	7558
1315	3906.571	3905.257	7508
1316	3906.632	3905.318	7550
1317	3906.694	3905.379	7473
1318	3906.755	3905.44	7470
1319	3906.816	3905.501	7451
1320	3906.877	3905.563	7423
1321	3906.938	3905.624	7476
1322	3906.999	3905.685	7420
1323	3907.06	3905.746	7518
1324	3907.122	3905.807	7471
1325	3907.183	3905.868	7583
1326	3907.244	3905.929	7509
1327	3907.305	3905.99	7506
1328	3907.366	3906.052	7544
1329	3907.427	3906.113	7645
1330	3907.488	3906.174	7705
1331	3907.549	3906.235	7869
1332	3907.611	3906.296	8278
1333	3907.672	3906.357	8669
1334	3907.733	3906.418	8911
1335	3907.794	3906.479	9127
1336	3907.855	3906.541	8943
1337	3907.916	3906.602	8403
1338	3907.977	3906.663	7978
1339	3908.039	3906.724	7900
1340	3908.1	3906.785	8370
1341	3908.161	3906.846	8892
1342	3908.222	3906.907	9276
1343	3908.283	3906.969	9474
1344	3908.344	3907.03	9276
1345	3908.405	3907.091	8597
1346	3908.466	3907.152	7967
1347	3908.528	3907.213	7601
1348	3908.589	3907.274	7481
1349	3908.65	3907.335	7428
1350	3908.711	3907.396	7448
1351	3908.772	3907.458	7462
1352	3908.833	3907.519	7344
1353	3908.894	3907.58	7471
1354	3908.956	3907.641	7503
1355	3909.017	3907.702	7599
1356	3909.078	3907.763	7470
1357	3909.139	3907.824	7505
1358	3909.2	3907.885	7547
1359	3909.261	3907.947	7512
1360	3909.322	3908.008	7487
1361	3909.383	3908.069	7400
1362	3909.445	3908.13	7495
1363	3909.506	3908.191	7474
1364	3909.567	3908.252	7543
1365	3909.628	3908.313	7560
1366	3909.689	3908.375	7526
1367	3909.75	3908.436	7552
1368	3909.811	3908.497	7526
1369	3909.873	3908.558	7610
1370	3909.934	3908.619	7539
1371	3909.995	3908.68	7639
1372	3910.056	3908.741	7741
1373	3910.117	3908.802	8180
1374	3910.178	3908.864	9259
1375	3910.239	3908.925	10271
1376	3910.3	3908.986	11217
1377	3910.362	3909.047	12410
1378	3910.423	3909.108	12938
1379	3910.484	3909.169	12688
1380	3910.545	3909.23	12185
1381	3910.606	3909.292	11367
1382	3910.667	3909.353	10270
1383	3910.728	3909.414	8929
1384	3910.79	3909.475	7939
1385	3910.851	3909.536	7625
1386	3910.912	3909.597	7498
1387	3910.973	3909.658	7513
1388	3911.034	3909.719	7462
1389	3911.095	3909.781	7380
1390	3911.156	3909.842	7404
1391	3911.217	3909.903	7434
1392	3911.279	3909.964	7382
1393	3911.34	3910.025	7325
1394	3911.401	3910.086	7366
1395	3911.462	3910.147	7335
1396	3911.523	3910.208	7407
1397	3911.584	3910.27	7279
1398	3911.645	3910.331	7318
1399	3911.707	3910.392	7272
1400	3911.768	3910.453	7342
1401	3911.829	3910.514	7268
1402	3911.89	3910.575	7387
1403	3911.951	3910.636	7332
1404	3912.012	3910.698	7377
1405	3912.073	3910.759	7297
1406	3912.134	3910.82	7321
1407	3912.196	3910.881	7429
1408	3912.257	3910.942	7329
1409	3912.318	3911.003	7333
1410	3912.379	3911.064	7324
1411	3912.44	3911.125	7312
1412	3912.501	3911.187	7299
1413	3912.562	3911.248	7365
1414	3912.624	3911.309	7450
1415	3912.685	3911.37	7322
1416	3912.746	3911.431	7327
1417	3912.807	3911.492	7279
1418	3912.868	3911.553	7336
1419	3912.929	3911.615	7325
1420	3912.99	3911.676	7334
1421	3913.051	3911.737	7322
1422	3913.113	3911.798	7319
1423	3913.174	3911.859	7269
1424	3913.235	3911.92	7278
1425	3913.296	3911.981	7387
1426	3913.357	3912.042	7421
1427	3913.418	3912.104	7359
1428	3913.479	3912.165	7356
1429	3913.541	3912.226	7338
1430	3913.602	3912.287	7321
1431	3913.663	3912.348	7393
1432	3913.724	3912.409	7407
1433	3913.785	3912.47	7516
1434	3913.846	3912.532	7876
1435	3913.907	3912.593	8390
1436	3913.968	3912.654	8856
1437	3914.03	3912.715	9165
1438	3914.091	3912.776	8999
1439	3914.152	3912.837	8594
1440	3914.213	3912.898	8160
1441	3914.274	3912.959	8360
1442	3914.335	3913.021	8775
1443	3914.396	3913.082	9105
1444	3914.458	3913.143	9470
1445	3914.519	3913.204	9198
1446	3914.58	3913.265	8695
1447	3914.641	3913.326	7940
1448	3914.702	3913.387	7507
1449	3914.763	3913.449	7413
1450	3914.824	3913.51	7434
1451	3914.885	3913.571	7275
1452	3914.947	3913.632	7350
1453	3915.008	3913.693	7379
1454	3915.069	3913.754	7265
1455	3915.13	3913.815	7377
1456	3915.191	3913.876	7433
1457	3915.252	3913.938	7440
1458	3915.313	3913.999	7454
1459	3915.375	3914.06	7625
1460	3915.436	3914.121	8174
1461	3915.497	3914.182	9239
1462	3915.558	3914.243	10098
1463	3915.619	3914.304	11422
1464	3915.68	3914.366	12535
1465	3915.741	3914.427	12585
1466	3915.802	3914.488	12081
1467	3915.864	3914.549	11380
1468	3915.925	3914.61	10141
1469	3915.986	3914.671	8811
1470	3916.047	3914.732	7856
1471	3916.108	3914.793	7471
1472	3916.169	3914.855	7348
1473	3916.23	3914.916	7370
1474	3916.292	3914.977	7293
1475	3916.353	3915.038	7301
1476	3916.414	3915.099	7219
1477	3916.475	3915.16	7196
1478	3916.536	3915.221	7214
1479	3916.597	3915.283	7185
1480	3916.658	3915.344	7212
1481	3916.719	3915.405	7164
1482	3916.781	3915.466	7146
1483	3916.842	3915.527	7224
1484	3916.903	3915.588	7284
1485	3916.964	3915.649	7210
1486	3917.025	3915.71	7286
1487	3917.086	3915.772	7260
1488	3917.147	3915.833	7193
1489	3917.208	3915.894	7232
1490	3917.27	3915.955	7103
1491	3917.331	3916.016	7168
1492	3917.392	3916.077	7169
1493	3917.453	3916.138	7123
1494	3917.514	3916.2	7143
1495	3917.575	3916.261	7155
1496	3917.636	3916.322	7153
1497	3917.698	3916.383	7180
1498	3917.759	3916.444	7152
1499	3917.82	3916.505	7237
1500	3917.881	3916.566	7515
1501	3917.942	3916.627	7642
1502	3918.003	3916.689	7642
1503	3918.064	3916.75	7564
1504	3918.125	3916.811	7502
1505	3918.187	3916.872	7279
1506	3918.248	3916.933	7229
1507	3918.309	3916.994	7139
1508	3918.37	3917.055	7024
1509	3918.431	3917.117	7107
1510	3918.492	3917.178	7134
1511	3918.553	3917.239	7107
1512	3918.615	3917.3	7109
1513	3918.676	3917.361	7119
1514	3918.737	3917.422	7170
1515	3918.798	3917.483	7123
1516	3918.859	3917.544	7053
1517	3918.92	3917.606	7116
1518	3918.981	3917.667	7050
1519	3919.042	3917.728	7101
1520	3919.104	3917.789	7025
1521	3919.165	3917.85	7041
1522	3919.226	3917.911	7153
1523	3919.287	3917.972	7068
1524	3919.348	3918.034	7056
1525	3919.409	3918.095	7066
1526	3919.47	3918.156	7010
1527	3919.531	3918.217	7089
1528	3919.593	3918.278	7132
1529	3919.654	3918.339	7060
1530	3919.715	3918.4	7017
1531	3919.776	3918.461	7109
1532	3919.837	3918.523	6994
1533	3919.898	3918.584	7076
1534	3919.959	3918.645	7092
1535	3920.021	3918.706	7055
1536	3920.082	3918.767	7026
1537	3920.143	3918.828	6970
1538	3920.204	3918.889	7116
1539	3920.265	3918.951	7165
1540	3920.326	3919.012	7189
1541	3920.387	3919.073	7137
1542	3920.448	3919.134	7207
1543	3920.51	3919.195	7218
1544	3920.571	3919.256	7666
1545	3920.632	3919.317	8253
1546	3920.693	3919.378	8724
1547	3920.754	3919.44	9058
1548	3920.815	3919.501	9150
1549	3920.876	3919.562	8851
1550	3920.938	3919.623	8716
1551	3920.999	3919.684	8855
1552	3921.06	3919.745	9029
1553	3921.121	3919.806	9390
1554	3921.182	3919.868	9327
1555	3921.243	3919.929	8822
1556	3921.304	3919.99	8097
1557	3921.365	3920.051	7761
1558	3921.427	3920.112	8248
1559	3921.488	3920.173	9126
1560	3921.549	3920.234	10194
1561	3921.61	3920.295	11465
1562	3921.671	3920.357	12075
1563	3921.732	3920.418	11932
1564	3921.793	3920.479	11205
1565	3921.854	3920.54	10097
1566	3921.916	3920.601	8794
1567	3921.977	3920.662	7708
1568	3922.038	3920.723	7281
1569	3922.099	3920.785	7091
1570	3922.16	3920.846	7020
1571	3922.221	3920.907	6914
1572	3922.282	3920.968	6997
1573	3922.344	3921.029	6958
1574	3922.405	3921.09	7032
1575	3922.466	3921.151	6898
1576	3922.527	3921.212	6912
1577	3922.588	3921.274	6915
1578	3922.649	3921.335	6853
1579	3922.71	3921.396	7047
1580	3922.771	3921.457	6933
1581	3922.833	3921.518	6926
1582	3922.894	3921.579	6958
1583	3922.955	3921.64	6933
1584	3923.016	3921.702	6969
1585	3923.077	3921.763	6930
1586	3923.138	3921.824	6931
1587	3923.199	3921.885	6900
1588	3923.26	3921.946	6882
1589	3923.322	3922.007	6994
1590	3923.383	3922.068	6857
1591	3923.444	3922.129	6847
1592	3923.505	3922.191	6837
1593	3923.566	3922.252	6907
1594	3923.627	3922.313	6840
1595	3923.688	3922.374	6876
1596	3923.75	3922.435	6869
1597	3923.811	3922.496	6834
1598	3923.872	3922.557	6859
1599	3923.933	3922.619	6913
1600	3923.994	3922.68	6782
1601	3924.055	3922.741	6844
1602	3924.116	3922.802	6838
1603	3924.177	3922.863	6860
1604	3924.239	3922.924	6857
1605	3924.3	3922.985	6864
1606	3924.361	3923.046	6946
1607	3924.422	3923.108	6929
1608	3924.483	3923.169	7016
1609	3924.544	3923.23	7009
1610	3924.605	3923.291	6972
1611	3924.667	3923.352	6886
1612	3924.728	3923.413	6921
1613	3924.789	3923.474	6876
1614	3924.85	3923.536	6924
1615	3924.911	3923.597	6837
1616	3924.972	3923.658	6925
1617	3925.033	3923.719	6862
1618	3925.094	3923.78	6929
1619	3925.156	3923.841	6970
1620	3925.217	3923.902	6885
1621	3925.278	3923.963	6885
1622	3925.339	3924.025	6879
1623	3925.4	3924.086	6934
1624	3925.461	3924.147	6852
1625	3925.522	3924.208	6846
1626	3925.583	3924.269	6793
1627	3925.645	3924.33	6857
1628	3925.706	3924.391	6766
1629	3925.767	3924.453	6841
1630	3925.828	3924.514	6944
1631	3925.889	3924.575	7026
1632	3925.95	3924.636	7156
1633	3926.011	3924.697	7332
1634	3926.073	3924.758	7357
1635	3926.134	3924.819	7289
1636	3926.195	3924.88	7208
1637	3926.256	3924.942	7023
1638	3926.317	3925.003	6964
1639	3926.378	3925.064	6840
1640	3926.439	3925.125	6851
1641	3926.5	3925.186	6858
1642	3926.562	3925.247	6856
1643	3926.623	3925.308	6814
1644	3926.684	3925.37	6887
1645	3926.745	3925.431	6810
1646	3926.806	3925.492	6783
1647	3926.867	3925.553	6833
1648	3926.928	3925.614	6841
1649	3926.99	3925.675	6837
1650	3927.051	3925.736	6826
1651	3927.112	3925.797	6900
1652	3927.173	3925.859	6984
1653	3927.234	3925.92	6994
1654	3927.295	3925.981	7077
1655	3927.356	3926.042	7077
1656	3927.417	3926.103	7155
1657	3927.479	3926.164	7070
1658	3927.54	3926.225	7073
1659	3927.601	3926.287	7019
1660	3927.662	3926.348	7087
1661	3927.723	3926.409	7068
1662	3927.784	3926.47	7243
1663	3927.845	3926.531	7821
1664	3927.907	3926.592	8351
1665	3927.968	3926.653	8851
1666	3928.029	3926.714	9244
1667	3928.09	3926.776	9652
1668	3928.151	3926.837	10436
1669	3928.212	3926.898	11386
1670	3928.273	3926.959	12744
1671	3928.334	3927.02	13733
1672	3928.396	3927.081	13595
1673	3928.457	3927.142	12488
1674	3928.518	3927.204	10697
1675	3928.579	3927.265	8913
1676	3928.64	3927.326	7808
1677	3928.701	3927.387	7108
1678	3928.762	3927.448	6895
1679	3928.824	3927.509	6874
1680	3928.885	3927.57	6828
1681	3928.946	3927.631	6799
1682	3929.007	3927.693	6775
1683	3929.068	3927.754	6772
1684	3929.129	3927.815	6741
1685	3929.19	3927.876	6802
1686	3929.251	3927.937	6794
1687	3929.313	3927.998	6779
1688	3929.374	3928.059	6793
1689	3929.435	3928.121	6853
1690	3929.496	3928.182	6827
1691	3929.557	3928.243	6826
1692	3929.618	3928.304	6687
1693	3929.679	3928.365	6792
1694	3929.741	3928.426	6747
1695	3929.802	3928.487	6807
1696	3929.863	3928.548	6893
1697	3929.924	3928.61	6831
1698	3929.985	3928.671	6869
1699	3930.046	3928.732	6808
1700	3930.107	3928.793	6804
1701	3930.168	3928.854	6768
1702	3930.23	3928.915	6744
1703	3930.291	3928.976	6810
1704	3930.352	3929.038	6768
1705	3930.413	3929.099	6753
1706	3930.474	3929.16	6743
1707	3930.535	3929.221	6737
1708	3930.596	3929.282	6885
1709	3930.658	3929.343	6961
1710	3930.719	3929.404	7013
1711	3930.78	3929.465	7191
1712	3930.841	3929.527	7124
1713	3930.902	3929.588	7139
1714	3930.963	3929.649	6996
1715	3931.024	3929.71	6906
1716	3931.085	3929.771	6784
1717	3931.147	3929.832	6749
1718	3931.208	3929.893	6709
1719	3931.269	3929.955	6668
1720	3931.33	3930.016	6703
1721	3931.391	3930.077	6695
1722	3931.452	3930.138	6723
1723	3931.513	3930.199	6749
1724	3931.575	3930.26	6654
1725	3931.636	3930.321	6621
1726	3931.697	3930.382	6623
1727	3931.758	3930.444	6688
1728	3931.819	3930.505	6546
1729	3931.88	3930.566	6557
1730	3931.941	3930.627	6661
1731	3932.002	3930.688	6624
1732	3932.064	3930.749	6619
1733	3932.125	3930.81	6589
1734	3932.186	3930.872	6670
1735	3932.247	3930.933	6580
1736	3932.308	3930.994	6679
1737	3932.369	3931.055	6617
1738	3932.43	3931.116	6660
1739	3932.492	3931.177	6628
1740	3932.553	3931.238	6672
1741	3932.614	3931.299	6622
1742	3932.675	3931.361	6663
1743	3932.736	3931.422	6684
1744	3932.797	3931.483	6628
1745	3932.858	3931.544	6645
1746	3932.919	3931.605	6582
1747	3932.981	3931.666	6591
1748	3933.042	3931.727	6584
1749	3933.103	3931.789	6566
1750	3933.164	3931.85	6572
1751	3933.225	3931.911	6645
1752	3933.286	3931.972	6592
1753	3933.347	3932.033	6583
1754	3933.409	3932.094	6703
1755	3933.47	3932.155	6628
1756	3933.531	3932.216	6709
1757	3933.592	3932.278	6835
1758	3933.653	3932.339	6845
1759	3933.714	3932.4	6929
1760	3933.775	3932.461	6898
1761	3933.836	3932.522	6940
1762	3933.898	3932.583	6869
1763	3933.959	3932.644	6736
1764	3934.02	3932.706	6610
1765	3934.081	3932.767	6641
1766	3934.142	3932.828	6554
1767	3934.203	3932.889	6576
1768	3934.264	3932.95	6596
1769	3934.326	3933.011	6589
1770	3934.387	3933.072	6634
1771	3934.448	3933.133	6675
1772	3934.509	3933.195	6575
1773	3934.57	3933.256	6588
1774	3934.631	3933.317	6622
1775	3934.692	3933.378	6664
1776	3934.753	3933.439	6616
1777	3934.815	3933.5	6680
1778	3934.876	3933.561	6641
1779	3934.937	3933.623	6673
1780	3934.998	3933.684	6665
1781	3935.059	3933.745	6704
1782	3935.12	3933.806	6788
1783	3935.181	3933.867	6812
1784	3935.243	3933.928	6854
1785	3935.304	3933.989	6919
1786	3935.365	3934.05	6933
1787	3935.426	3934.112	6999
1788	3935.487	3934.173	7094
1789	3935.548	3934.234	7524
1790	3935.609	3934.295	8651
1791	3935.67	3934.356	10024
1792	3935.732	3934.417	11461
1793	3935.793	3934.478	12360
1794	3935.854	3934.54	12513
1795	3935.915	3934.601	12096
1796	3935.976	3934.662	11023
1797	3936.037	3934.723	9966
1798	3936.098	3934.784	9319
1799	3936.16	3934.845	8625
1800	3936.221	3934.906	8028
1801	3936.282	3934.967	7213
1802	3936.343	3935.029	6813
1803	3936.404	3935.09	6644
1804	3936.465	3935.151	6576
1805	3936.526	3935.212	6578
1806	3936.587	3935.273	6587
1807	3936.649	3935.334	6602
1808	3936.71	3935.395	6442
1809	3936.771	3935.457	6570
1810	3936.832	3935.518	6584
1811	3936.893	3935.579	6482
1812	3936.954	3935.64	6479
1813	3937.015	3935.701	6569
1814	3937.077	3935.762	6399
1815	3937.138	3935.823	6458
1816	3937.199	3935.884	6539
1817	3937.26	3935.946	6566
1818	3937.321	3936.007	6527
1819	3937.382	3936.068	6495
1820	3937.443	3936.129	6482
1821	3937.504	3936.19	6494
1822	3937.566	3936.251	6477
1823	3937.627	3936.312	6479
1824	3937.688	3936.374	6481
1825	3937.749	3936.435	6475
1826	3937.81	3936.496	6477
1827	3937.871	3936.557	6475
1828	3937.932	3936.618	6514
1829	3937.994	3936.679	6553
1830	3938.055	3936.74	6515
1831	3938.116	3936.801	6546
1832	3938.177	3936.863	6508
1833	3938.238	3936.924	6468
1834	3938.299	3936.985	6434
1835	3938.36	3937.046	6552
1836	3938.421	3937.107	6443
1837	3938.483	3937.168	6540
1838	3938.544	3937.229	6541
1839	3938.605	3937.291	6487
1840	3938.666	3937.352	6445
1841	3938.727	3937.413	6446
1842	3938.788	3937.474	6438
1843	3938.849	3937.535	6406
1844	3938.911	3937.596	6498
1845	3938.972	3937.657	6384
1846	3939.033	3937.718	6488
1847	3939.094	3937.78	6509
1848	3939.155	3937.841	6470
1849	3939.216	3937.902	6491
1850	3939.277	3937.963	6453
1851	3939.338	3938.024	6400
1852	3939.4	3938.085	6393
1853	3939.461	3938.146	6336
1854	3939.522	3938.208	6404
1855	3939.583	3938.269	6383
1856	3939.644	3938.33	6404
1857	3939.705	3938.391	6361
1858	3939.766	3938.452	6399
1859	3939.828	3938.513	6315
1860	3939.889	3938.574	6372
1861	3939.95	3938.635	6342
1862	3940.011	3938.697	6402
1863	3940.072	3938.758	6305
1864	3940.133	3938.819	6368
1865	3940.194	3938.88	6334
1866	3940.255	3938.941	6436
1867	3940.317	3939.002	6337
1868	3940.378	3939.063	6424
1869	3940.439	3939.125	6361
1870	3940.5	3939.186	6369
1871	3940.561	3939.247	6403
1872	3940.622	3939.308	6462
1873	3940.683	3939.369	6392
1874	3940.745	3939.43	6391
1875	3940.806	3939.491	6303
1876	3940.867	3939.552	6318
1877	3940.928	3939.614	6307
1878	3940.989	3939.675	6253
1879	3941.05	3939.736	6354
1880	3941.111	3939.797	6465
1881	3941.172	3939.858	6434
1882	3941.234	3939.919	6388
1883	3941.295	3939.98	6362
1884	3941.356	3940.042	6293
1885	3941.417	3940.103	6248
1886	3941.478	3940.164	6265
1887	3941.539	3940.225	6281
1888	3941.6	3940.286	6327
1889	3941.662	3940.347	6203
1890	3941.723	3940.408	6295
1891	3941.784	3940.469	6294
1892	3941.845	3940.531	6261
1893	3941.906	3940.592	6288
1894	3941.967	3940.653	6316
1895	3942.028	3940.714	6330
1896	3942.089	3940.775	6323
1897	3942.151	3940.836	6321
1898	3942.212	3940.897	6257
1899	3942.273	3940.958	6322
1900	3942.334	3941.02	6257
1901	3942.395	3941.081	6320
1902	3942.456	3941.142	6348
1903	3942.517	3941.203	6326
1904	3942.579	3941.264	6307
1905	3942.64	3941.325	6345
1906	3942.701	3941.386	6290
1907	3942.762	3941.448	6345
1908	3942.823	3941.509	6312
1909	3942.884	3941.57	6344
1910	3942.945	3941.631	6371
1911	3943.006	3941.692	6455
1912	3943.068	3941.753	6428
1913	3943.129	3941.814	6462
1914	3943.19	3941.875	6406
1915	3943.251	3941.937	6441
1916	3943.312	3941.998	6399
1917	3943.373	3942.059	6428
1918	3943.434	3942.12	6481
1919	3943.496	3942.181	6457
1920	3943.557	3942.242	6445
1921	3943.618	3942.303	6434
1922	3943.679	3942.365	6471
1923	3943.74	3942.426	6449
1924	3943.801	3942.487	6649
1925	3943.862	3942.548	7106
1926	3943.923	3942.609	7998
1927	3943.985	3942.67	9236
1928	3944.046	3942.731	10528
1929	3944.107	3942.792	11099
1930	3944.168	3942.854	11431
1931	3944.229	3942.915	11107
1932	3944.29	3942.976	10064
1933	3944.351	3943.037	9446
1934	3944.413	3943.098	8872
1935	3944.474	3943.159	8325
1936	3944.535	3943.22	7660
1937	3944.596	3943.281	7192
1938	3944.657	3943.343	6654
1939	3944.718	3943.404	6407
1940	3944.779	3943.465	6411
1941	3944.84	3943.526	6351
1942	3944.902	3943.587	6452
1943	3944.963	3943.648	6344
1944	3945.024	3943.709	6387
1945	3945.085	3943.771	6372
1946	3945.146	3943.832	6312
1947	3945.207	3943.893	6326
1948	3945.268	3943.954	6257
1949	3945.33	3944.015	6237
1950	3945.391	3944.076	6236
1951	3945.452	3944.137	6212
1952	3945.513	3944.198	6206
1953	3945.574	3944.26	6236
1954	3945.635	3944.321	6142
1955	3945.696	3944.382	6234
1956	3945.757	3944.443	6224
1957	3945.819	3944.504	6172
1958	3945.88	3944.565	6252
1959	3945.941	3944.626	6242
1960	3946.002	3944.688	6195
1961	3946.063	3944.749	6200
1962	3946.124	3944.81	6252
1963	3946.185	3944.871	6209
1964	3946.247	3944.932	6245
1965	3946.308	3944.993	6274
1966	3946.369	3945.054	6305
1967	3946.43	3945.115	6322
1968	3946.491	3945.177	6372
1969	3946.552	3945.238	6378
1970	3946.613	3945.299	6353
1971	3946.674	3945.36	6335
1972	3946.736	3945.421	6268
1973	3946.797	3945.482	6192
1974	3946.858	3945.543	6237
1975	3946.919	3945.604	6230
1976	3946.98	3945.666	6264
1977	3947.041	3945.727	6141
1978	3947.102	3945.788	6209
1979	3947.164	3945.849	6192
1980	3947.225	3945.91	6239
1981	3947.286	3945.971	6270
1982	3947.347	3946.032	6323
1983	3947.408	3946.094	6276
1984	3947.469	3946.155	6257
1985	3947.53	3946.216	6255
1986	3947.591	3946.277	6208
1987	3947.653	3946.338	6084
1988	3947.714	3946.399	6114
1989	3947.775	3946.46	6086
1990	3947.836	3946.521	6145
1991	3947.897	3946.583	6165
1992	3947.958	3946.644	6178
1993	3948.019	3946.705	6118
1994	3948.081	3946.766	6135
1995	3948.142	3946.827	6177
1996	3948.203	3946.888	6209
1997	3948.264	3946.949	6069
1998	3948.325	3947.01	6121
1999	3948.386	3947.072	6145
2000	3948.447	3947.133	6088
2001	3948.508	3947.194	6072
2002	3948.57	3947.255	6077
2003	3948.631	3947.316	6127
2004	3948.692	3947.377	6115
2005	3948.753	3947.438	6055
2006	3948.814	3947.5	6054
2007	3948.875	3947.561	6148
2008	3948.936	3947.622	6077
2009	3948.998	3947.683	6137
2010	3949.059	3947.744	6106
2011	3949.12	3947.805	6206
2012	3949.181	3947.866	6224
2013	3949.242	3947.927	6196
2014	3949.303	3947.989	6223
2015	3949.364	3948.05	6265
2016	3949.425	3948.111	6249
2017	3949.487	3948.172	6342
2018	3949.548	3948.233	6296
2019	3949.609	3948.294	6376
2020	3949.67	3948.355	6402
2021	3949.731	3948.417	6364
2022	3949.792	3948.478	6343
2023	3949.853	3948.539	6266
2024	3949.915	3948.6	6154
2025	3949.976	3948.661	6076
2026	3950.037	3948.722	6040
2027	3950.098	3948.783	6001
2028	3950.159	3948.844	6016
2029	3950.22	3948.906	6040
2030	3950.281	3948.967	6111
2031	3950.342	3949.028	6160
2032	3950.404	3949.089	6139
2033	3950.465	3949.15	6107
2034	3950.526	3949.211	6119
2035	3950.587	3949.272	6138
2036	3950.648	3949.333	6112
2037	3950.709	3949.395	6247
2038	3950.77	3949.456	6345
2039	3950.832	3949.517	6422
2040	3950.893	3949.578	6560
2041	3950.954	3949.639	6539
2042	3951.015	3949.7	6559
2043	3951.076	3949.761	6500
2044	3951.137	3949.823	6287
2045	3951.198	3949.884	6282
2046	3951.259	3949.945	6223
2047	3951.321	3950.006	6130
2048	3951.382	3950.067	6021
