Date and Time:                Mon Jul 20 15:06:39.007 2020
Software Version:             4.30.30034.0
Temperature (C):              -65
Model:                        DU940P_BU2
Data Type:                    Counts
Acquisition Mode:             Accumulate
Trigger Mode:                 Internal
Exposure Time (secs):         1.04035
Accumulate Cycle Time (secs): 1.0403
Frequency (Hz):               0.96122
Number of Accumulations:      20
Readout Mode:                 Full Vertical Binning
Horizontal binning:           1
Extended Dynamic Range:       off
Horizontally flipped:         false
Vertical Shift Speed (usecs): 57.71
Pixel Readout Rate (MHz):     0.05
Baseline Clamp:               OFF
Clock Amplitude:              Normal
Output Amplifier:             High Sensitivity
Serial Number:                13925
Pre-Amplifier Gain:           1x
Spurious Noise Filter Mode:   No Filter
Photon counted:               false
Data Averaging Filter Mode:   No Filter
SR750:
Serial Number:                SR-1306
Wavelength (nm):              388
Grating Groove Density (l/mm):2401.21
Grating Blaze:                300
Accessory Output Port 1:      Off
Accessory Output Port 2:      Off
Accessory Output Port 3:      Off
Accessory Input Port:         On



381.70029	20428
381.70648	20574
381.71268	20565
381.71884	20691
381.72504	20757
381.73123	20723
381.73743	20695
381.74359	20662
381.74979	20825
381.75598	20805
381.76218	20871
381.76834	20898
381.77454	20948
381.78073	20991
381.78693	20981
381.79312	21092
381.79929	21135
381.80548	21125
381.81168	21178
381.81787	21108
381.82404	21200
381.83023	21079
381.83643	20972
381.84259	21039
381.84879	21031
381.85498	21127
381.86118	21085
381.86734	21006
381.87354	21012
381.87973	21043
381.88593	21076
381.89209	21198
381.89828	21291
381.90448	21252
381.91068	21151
381.91684	21237
381.92303	21154
381.92923	21161
381.93539	21153
381.94159	21223
381.94778	21205
381.95395	21240
381.96014	21335
381.96634	21142
381.97253	21290
381.9787	21272
381.98489	21184
381.99109	21131
381.99725	21079
382.00345	21110
382.00964	21049
382.01581	20970
382.022	21078
382.0282	21031
382.03439	21064
382.04056	21016
382.04675	21150
382.05295	21112
382.05911	21284
382.06531	21255
382.0715	21302
382.07767	21223
382.08386	21195
382.09006	21186
382.09622	21098
382.10242	21147
382.10861	21162
382.11478	21056
382.12097	21090
382.12717	21079
382.13333	21076
382.13953	21077
382.14569	21215
382.15189	21202
382.15808	21198
382.16425	21206
382.17044	21250
382.17664	21105
382.1828	21251
382.189	21118
382.19519	21291
382.20135	21203
382.20755	21266
382.21371	21272
382.21991	21276
382.2261	21297
382.23227	21359
382.23846	21388
382.24466	21375
382.25082	21419
382.25702	21352
382.26318	21383
382.26938	21290
382.27557	21335
382.28174	21201
382.28793	21297
382.2941	21191
382.30029	21277
382.30649	21311
382.31265	21416
382.31885	21239
382.32501	21168
382.33121	21207
382.3374	21297
382.34357	21121
382.34976	21046
382.35593	21183
382.36212	21079
382.36832	21212
382.37448
